           
Qz[1/Angstrom]	log scale 
R/RF[Reflectivity normalized by the Fresnel reflectivity]	

Qz      R/RF            Err
0.00711	1.43109E6	35452.48697
0.00747	1.42571E6	34573.6175
0.00782	1.34985E6	32908.52748
0.00818	1.35837E6	32328.19409
0.00854	1.32156E6	31257.8236
0.00889	1.31639E6	30609.16384
0.00925	1.36211E6	30575.85894
0.0096	1.37198E6	30158.22089
0.00996	1.37009E6	29640.60911
0.01031	1.40353E6	29525.91427
0.01067	1.36852E6	28713.06408
0.01102	1.381E6	2       8423.48199
0.01138	1.36705E6	27883.48296
0.01174	1.38416E6	27679.32326
0.01209	1.34795E6	26960.62823
0.01245	1.34341E6	26578.82627
0.0128	1.33537E6	26180.1212
0.01316	1.39379E6	26435.9833
0.01351	1.33676E6	25599.39718
0.01387	1.40922E6	25999.75239
0.01423	1.3945E6	25593.56979
0.01458	1.43326E6	25684.97805
0.01494	1.4023E6	25158.38186
0.01529	1.39194E6	24829.14789
0.01565	1.38148E6	24510.33601
0.016	1.38545E6	24329.18337
0.01636	1.36026E6	23901.48403
0.01671	1.35113E6	23624.74514
0.01707	1.38738E6	23748.45566
0.01743	1.35603E6	23297.18763
0.01778	1.39812E6	23479.11423
0.01814	1.3628E6	23012.7742
0.01849	1.42384E6	23357.61711
0.01885	1.37736E6	22817.24992
0.0192	1.3899E6	22770.16589
0.01956	1.40909E6	22780.79147
0.01992	1.34629E6	22130.0459
0.02027	1.39459E6	22388.97639
0.02063	1.38205E6	22159.11765
0.02098	1.37363E6	21967.65909
0.02134	1.38239E6	21917.90173
0.02169	1.41603E6	22066.30375
0.02205	1.35671E6	21489.13602
0.0224	1.36425E6	21442.43411
0.02276	1.34089E6	21156.49202
0.02312	1.31825E6	20880.05442
0.02347	1.33858E6	20946.11451
0.02383	1.30749E6	20611.55842
0.02418	1.38094E6	21093.52322
0.02454	1.33393E6	20646.99751
0.02489	1.34563E6	20655.65899
0.02525	1.27875E6	20058.97146
0.02561	1.30743E6	20207.77272
0.02596	1.27205E6	19861.27838
0.02632	1.31254E6	20105.14263
0.02667	1.28909E6	19858.04077
0.02703	1.27984E6	19722.65196
0.02738	1.24285E6	19374.62495
0.02774	1.22422E6	19170.66564
0.02809	1.23676E6	19212.13364
0.02845	1.20828E6	11976.0853
0.02845	1.22294E6	19050.37984
0.02881	1.17157E6	11760.46127
0.02916	1.1494E6	11617.86471
0.02952	1.09306E6	11300.56651
0.02987	1.05558E6	11077.68483
0.03023	1.01827E6	10854.15656
0.03058	968431.60796	10560.80879
0.03094	912529.68818	10228.64408
0.0313	840227.89279	9793.96201
0.03165	762278.71922	9309.24647
0.03201	683702.10073	8798.73751
0.03236	628837.43409	8422.01681
0.03272	883956.02642	12562.74489
0.03307	1.05099E6	15786.99377
0.03343	1.1277E6	18076.25799
0.03378	1.24713E6	20628.54113
0.03414	1.32836E6	22848.62957
0.0345	1.41506E6	25117.30666
0.03485	1.55473E6	27883.51698
0.03521	1.60297E6	29854.26935
0.03556	1.56892E6	31033.05304
0.03592	1.50764E6	31869.30307
0.03627	1.3911E6	31990.19796
0.03663	1.47258E6	34320.85144
0.03699	1.56658E6	36843.3583
0.03734	1.54732E6	38046.66679
0.0377	1.51963E6	39120.00948
0.03805	1.7072E6	42963.29679
0.03841	1.78101E6	45414.3599
0.03876	1.92812E6	48849.12533
0.03912	1.873E6	        49722.385
0.03947	1.94341E6	52258.70335
0.03983	1.9116E6	53431.70846
0.04019	2.02684E6	56674.6665
0.04054	2.05182E6	58696.09334
0.0409	1.97203E6	59191.21192
0.04125	2.05949E6	62181.47395
0.04161	2.08055E6	64207.80821
0.04196	2.29576E6	69251.87283
0.04232	2.10968E6	68126.01932
0.04268	2.25178E6	72191.78798
0.04268	2.20627E6	25586.24015
0.04303	2.26207E6	74178.83667
0.04339	2.4187E6	78599.74562
0.04339	2.32584E6	27597.67274
0.04374	2.33383E6	79082.88294
0.0441	2.33591E6	29004.49977
0.0441	2.44359E6	82850.97998
0.04445	2.19173E6	80303.49258
0.04481	2.50949E6	87906.73337
0.04481	2.3954E6	30751.86973
0.04516	2.29286E6	85931.64938
0.04552	2.44095E6	32454.67304
0.04552	2.35594E6	89048.73773
0.04588	2.29184E6	89758.59431
0.04623	2.5244E6	34460.06953
0.04623	2.31498E6	92163.64154
0.04694	2.49335E6	35712.66626
0.04765	2.51016E6	37322.96364
0.04837	2.57391E6	39321.77546
0.04908	2.52489E6	40481.2998
0.04979	2.57221E6	42428.20592
0.04979	2.49593E6	14639.94329
0.0505	2.50379E6	15213.26281
0.0505	2.56967E6	43998.68767
0.05121	2.4953E6	15742.90833
0.05121	2.56567E6	45572.38943
0.05192	2.52269E6	16395.43713
0.05192	2.5269E6	46845.04992
0.05263	2.45829E6	16751.01565
0.05263	2.50892E6	48311.06621
0.05334	2.47862E6	17396.50908
0.05334	2.39821E6	48851.76049
0.05406	2.37791E6	17612.75965
0.05406	2.40629E6	50580.37633
0.05477	2.32669E6	17993.83043
0.05477	2.35203E6	51648.11086
0.05548	2.20239E6	18071.51917
0.05548	2.18221E6	51354.05223
0.05619	2.08443E6	51779.29933
0.05619	2.11249E6	18259.18063
0.0569	2.05851E6	18583.11087
0.0569	1.9809E6	52041.82121
0.05761	1.89713E6	52484.95983
0.05761	1.94504E6	18615.33537
0.05832	1.82173E6	18553.38963
0.05832	1.79255E6	52540.75661
0.05903	1.71995E6	18560.69425
0.05903	1.73916E6	53282.2991
0.05975	1.46987E6	50400.1516
0.05975	1.62364E6	18554.6372
0.06046	1.48564E6	18255.36434
0.06046	1.37897E6	50210.78953
0.06117	1.35751E6	51199.53255
0.06117	1.35692E6	17930.57911
0.06188	1.3083E6	51658.6294
0.06188	1.29622E6	18011.53837
0.06259	1.15572E6	17465.33716
0.06259	1.16126E6	49979.76833
0.0633	1.04679E6	17068.37884
0.0633	1.0106E6	47877.80685
0.06401	965297.17722	16820.21689
0.06401	949974.34049	47636.15427
0.06472	854782.57707	16240.14501
0.06544	767885.04334	15779.94044
0.06615	697589.27461	15418.51166
0.06686	638619.44626	15120.69877
0.06757	605464.49967	15080.381
0.06828	574030.76167	15047.1375
0.06899	537182.84481	14893.04448
0.0697	498679.77716	14686.32095
0.07041	505177.40229	15132.84989
0.07113	506928.62113	3851.40389
0.07113	513712.96264	15604.51744
0.07184	520624.06282	16059.53275
0.07184	509028.68615	3945.34085
0.07255	518110.30562	4073.4534
0.07255	520328.16529	16428.84018
0.07326	542542.43458	4257.10007
0.07326	543684.06697	17152.00932
0.07397	552577.17298	4389.82001
0.07397	553490.23567	17682.74421
0.07468	575565.8848	4585.95438
0.07468	534743.08451	17790.84019
0.07539	633934.2523	19747.30427
0.07539	604556.49916	4791.63794
0.0761	631168.68908	4995.65866
0.0761	631453.34952	20111.66873
0.07682	661796.18258	5221.36307
0.07682	635324.33528	20590.97999
0.07753	650548.27295	21264.0338
0.07753	692198.98999	5449.58893
0.07824	733663.47644	23039.91858
0.07824	723757.24456	5685.53669
0.07895	769373.05304	5981.14906
0.07966	796508.00651	6208.24436
0.08037	816651.39852	6411.13016
0.08108	835540.69046	6611.86489
0.08179	877046.45551	6905.24773
0.0825	885337.26476	7071.03658
0.08322	911109.55329	7309.44294
0.08393	911374.01866	7445.99527
0.08464	925440.6032	7638.50229
0.08535	927665.89398	7843.75421
0.08606	936584.80844	7999.70981
0.08677	940737.3484	8136.19193
0.08748	948930.54719	8314.48623
0.08819	935753.85188	8424.38254
0.08891	933622.10918	8535.80412
0.08962	915224.66412	8594.415
0.09033	921296.87651	8767.10954
0.09104	893124.12955	8794.32932
0.09175	871524.61015	8871.59225
0.09246	852778.23519	8882.12742
0.09317	828536.12208	8919.19912
0.09388	796892.21669	8913.27573
0.0946	774734.06484	8956.45834
0.09531	761386.34949	9049.24905
0.09602	726485.53191	9013.98711
0.09673	702206.04811	8992.0749
0.09744	676849.11115	8955.01282
0.09815	649380.80508	8894.62211
0.09886	620229.51341	8811.59991
0.09957	601444.90719	8790.93047
0.10029	588361.6716	8824.55632
0.101	555829.42807	8706.29328
0.10171	541636.94008	8719.90308
0.10242	526393.27472	8720.46143
0.10313	520425.75837	8793.72123
0.10384	468690.38841	8490.6634
0.10455	472743.376	8667.69648
0.10526	453564.7371	8635.89238
0.10597	442961.26628	8680.1162
0.10669	436566.23563	8763.46568
0.1074	438902.98754	8904.43214
0.10811	427910.63608	8913.85584
0.10882	428340.77846	9035.60077
0.10953	433277.63681	9203.88556
0.11024	432266.43311	9311.84563
0.11095	447895.52654	9593.66378
0.11166	434347.37428	9570.9682
0.11238	429518.57847	9637.36621
0.11309	458929.74959	10074.84443
0.1138	460746.17815	10217.37125
0.11451	461283.43865	10363.25285
0.11522	470762.55088	10609.08168
0.11593	474844.37662	10798.13545
0.11664	485355.73133	11060.81048
0.11735	464340.66557	10970.96342
0.11807	490312.13546	11414.7917
0.11878	473616.98219	11374.03624
0.11949	482509.66525	11628.72348
0.1202	519516.69006	12210.21112
0.12091	486586.24148	11984.60442
0.12162	472105.19268	11948.85677
0.12233	498364.70542	12406.71344
0.12304	489747.9683	12443.05686
0.12375	492253.63163	12614.87385
0.12447	465959.8632	12420.8826
0.12518	478798.18833	12724.71559
0.12589	484176.68627	12933.93962
0.1266	491881.62624	13174.9671
0.12731	456619.05546	12841.09119
0.12802	460090.2187	13024.8292
0.12873	449483.35117	13032.54543
0.12944	435436.73657	12986.58658
0.13016	443228.54097	13256.18322
0.13087	405282.60484	12843.60944
0.13158	408945.06181	13053.67656
0.13229	400125.54216	13070.24143
0.133	384320.51112	12970.51424
0.13371	374466.66869	12961.13462
0.13442	359528.64122	12860.74829
0.13513	366268.05204	13128.51139
0.13584	362110.5758	13190.78682
0.13656	354729.58233	13193.71721
0.13727	365086.34851	13511.73955
0.13798	337862.53217	13147.3082
0.13869	303745.38537	12615.1743
0.1394	293600.12794	12530.66804
0.14011	327845.27834	13338.65953
0.14082	294994.6415	12796.76158
0.14153	306396.11096	13153.6348
0.14225	285799.17521	12835.82271
0.14296	272782.26578	6374.39167
0.14367	279807.78805	6521.94803
0.14438	273957.37806	6526.19284
0.14509	270439.11882	6555.88206
0.1458	270794.597	6630.18035
0.14651	272911.03232	6725.63675
0.14722	274013.10669	6810.02384
0.14793	261290.03899	6729.23362
0.14865	254760.86543	6719.82557
0.14936	256186.77768	6808.31901
0.15007	249974.89985	6793.54173
0.15078	246224.2874	6808.35226
0.15149	236622.47558	6744.19582
0.1522	238838.46098	6835.72984
0.15291	234476.51341	6838.32883
0.15362	243001.85385	7016.70802
0.15433	236772.70733	6993.33747
0.15505	230790.88063	6970.69734
0.15576	231340.19311	7039.60129
0.15647	225003.98383	7008.6511
0.15718	234955.59085	7226.08777
0.15789	245819.69841	7456.69258
0.1586	224160.10828	7212.71957
0.15931	225063.33137	7299.73045
0.16002	223649.81236	7352.08793
0.16073	209922.15968	7211.20125
0.16145	218275.88242	7417.32497
0.16216	218753.76357	7499.8725
0.16287	213344.79615	7488.51851
0.16358	196326.48313	7280.94314
0.16429	217374.87533	7691.2809
0.165	201025.19048	7479.16477
0.16571	202211.87025	7558.98886
0.16642	197276.00309	7532.25585
0.16713	198550.21616	7613.32513
0.16785	187191.96122	7466.36459
0.16856	180658.43565	7400.76561
0.16927	191123.02154	7652.17736
0.16998	190055.84622	7688.91478
0.17069	189744.41293	7739.76138
0.1714	182853.08566	7677.22222
0.17211	189616.59872	7878.14701
0.17282	171239.29948	7584.0613
0.17353	187004.59559	7969.28357
0.17425	167185.25221	7637.35008
0.17496	189132.33328	8154.91251
0.17567	153708.79989	7483.88205
0.17638	162975.48973	7754.16119
0.17709	150343.92706	7543.23988
0.1778	151803.59476	7643.47186
0.17851	171976.47353	8145.9893
0.17922	146241.77932	7622.34398
0.17993	134522.49321	7392.17731
0.18065	151565.95525	7853.67177
0.18136	143959.77359	7724.32074
0.18207	152463.43656	7981.57334
0.18278	148403.16635	7936.06609
0.18349	150464.66167	8038.53967
0.1842	143745.5006	7922.71689
0.18491	155841.47168	8275.95989
0.18562	141685.54156	7991.61857
0.18633	125780.99512	7638.35578
0.18705	145517.24268	8234.35947
0.18776	129950.81892	7892.0309
0.18847	129222.05475	7942.82558
0.18918	143140.40732	8392.29283
0.18989	128937.00203	8078.12936
0.1906	129419.66565	8164.19422
0.19131	131278.78926	8289.8195
0.19202	114689.24432	7880.25792
0.19273	134593.09713	8531.62759
0.19344	109685.23652	7868.99463
0.19416	119155.38379	8230.20931
0.19487	108268.76863	7967.37887
0.19558	102636.3655	7858.77652
0.19629	105090.22111	8010.19167
0.197	113892.62138	8364.15864
0.19771	117594.64207	8555.31123
0.19842	98656.5485	8016.32972
0.19913	127445.81648	9012.9136
0.19984	101283.12314	8228.84264
0.20056	102006.34764	8304.37884
0.20127	109600.2056	8611.67973
0.20198	123780.16126	9127.61296
0.20269	104140.85991	8530.08738
0.2034	121585.02054	9168.39828
0.20411	107351.86044	8742.94817
0.20482	107447.94487	8797.11932
0.20553	108143.61529	8872.10516
0.20624	115791.21828	9189.53265
0.20695	105663.85639	8882.17556
0.20767	98477.20276	8664.17974
0.20838	104255.82794	8925.30661
0.20909	99471.35238	8791.58616
0.2098	100631.21686	8880.34038
0.21051	96300.55743	8756.24282
0.21122	102975.53978	9058.95196
0.21193	104866.33743	9176.02645
0.21264	112512.40075	9512.3811
0.21335	91995.28297	8747.50997
